File: 论文/¬€Œƒ/¬€Œƒ/dsc/10%10mm.txt
Filename:	D:\TGAdata\„∆√ŒœÈ\20150506\10.pdid

Temperature (°„C)	Heat Flow Endo Up (mW)
10.68	2.2955
11.03	1.4259
11.65	1.8262
12.28	2.6273
12.93	3.0762
13.58	3.2752
14.23	3.3626
14.87	3.4063
15.52	3.4335
16.17	3.4562
16.81	3.4782
17.46	3.4964
18.11	3.5188
18.75	3.5377
19.40	3.5550
20.04	3.5711
20.69	3.5886
21.33	3.6056
21.98	3.6249
22.62	3.6426
23.27	3.6624
23.92	3.6809
24.56	3.6997
25.20	3.7188
25.84	3.7361
26.49	3.7562
27.14	3.7765
27.78	3.7938
28.43	3.8136
29.08	3.8343
29.73	3.8538
30.37	3.8727
31.02	3.8916
31.66	3.9112
32.31	3.9319
32.95	3.9515
33.60	3.9703
34.25	3.9895
34.89	4.0111
35.53	4.0305
36.18	4.0502
36.84	4.0690
37.48	4.0900
38.13	4.1102
38.77	4.1294
39.42	4.1492
40.07	4.1694
40.72	4.1897
41.36	4.2093
42.01	4.2304
42.65	4.2520
43.30	4.2723
43.94	4.2925
44.59	4.3131
45.24	4.3329
45.89	4.3545
46.53	4.3757
47.18	4.3962
47.83	4.4175
48.48	4.4399
49.13	4.4612
49.77	4.4810
50.42	4.5031
51.06	4.5254
51.71	4.5470
52.36	4.5703
53.00	4.5920
53.66	4.6147
54.30	4.6376
54.95	4.6606
55.59	4.6834
56.25	4.7063
56.90	4.7315
57.54	4.7550
58.19	4.7786
58.83	4.8033
59.49	4.8293
60.13	4.8543
60.77	4.8785
61.42	4.9049
62.07	4.9313
62.72	4.9564
63.36	4.9829
64.02	5.0078
64.67	5.0343
65.31	5.0611
65.96	5.0865
66.61	5.1106
67.25	5.1353
67.90	5.1600
68.55	5.1844
69.20	5.2083
69.85	5.2324
70.50	5.2564
71.14	5.2814
71.79	5.3038
72.44	5.3280
73.09	5.3531
73.74	5.3760
74.39	5.4008
75.04	5.4257
75.69	5.4492
76.34	5.4748
76.98	5.4984
77.63	5.5214
78.28	5.5474
78.92	5.5727
79.58	5.5959
80.23	5.6202
80.88	5.6482
81.53	5.6746
82.17	5.6985
82.82	5.7196
83.46	5.7435
84.11	5.7685
84.76	5.7944
85.40	5.8216
86.05	5.8454
86.69	5.8705
87.34	5.8961
87.99	5.9217
88.63	5.9469
89.28	5.9723
89.93	5.9977
90.58	6.0239
91.22	6.0506
91.87	6.0776
92.52	6.1039
93.16	6.1281
93.81	6.1539
94.46	6.1812
95.11	6.2084
95.75	6.2351
96.40	6.2623
97.05	6.2879
97.70	6.3195
98.34	6.3467
99.00	6.3744
99.64	6.4008
100.29	6.4276
100.94	6.4558
101.59	6.4819
102.24	6.5107
102.88	6.5390
103.53	6.5668
104.18	6.5955
104.83	6.6227
105.48	6.6527
106.12	6.6802
106.77	6.7089
107.42	6.7362
108.07	6.7627
108.71	6.7905
109.36	6.8168
110.02	6.8438
110.66	6.8688
111.31	6.8973
111.96	6.9278
112.60	6.9572
113.25	6.9889
113.91	7.0196
114.55	7.0494
115.20	7.0808
115.85	7.1136
116.50	7.1452
117.15	7.1778
117.79	7.2118
118.44	7.2445
119.09	7.2789
119.74	7.3123
120.39	7.3466
121.04	7.3815
121.69	7.4164
122.33	7.4510
122.98	7.4870
123.63	7.5235
124.28	7.5591
124.93	7.5948
125.58	7.6331
126.23	7.6700
126.88	7.7079
127.52	7.7453
128.17	7.7836
128.82	7.8248
129.47	7.8622
130.13	7.9005
130.77	7.9426
131.42	7.9834
132.07	8.0258
132.71	8.0683
133.37	8.1099
134.02	8.1516
134.66	8.1974
135.31	8.2411
135.96	8.2826
136.61	8.3294
137.26	8.3750
137.91	8.4199
138.56	8.4671
139.21	8.5166
139.86	8.5642
140.51	8.6124
141.15	8.6627
141.81	8.7146
142.46	8.7659
143.10	8.8212
143.76	8.8790
144.40	8.9369
145.05	8.9990
145.70	9.0605
146.35	9.1241
146.99	9.1880
147.64	9.2540
148.30	9.3178
148.94	9.3788
149.58	9.4350
150.23	9.4933
150.88	9.5480
151.53	9.6053
152.18	9.6704
152.82	9.7459
153.47	9.8289
154.12	9.9192
154.76	10.0111
155.41	10.1057
156.06	10.2081
156.71	10.3171
157.35	10.4284
158.00	10.5522
158.65	10.6951
159.30	10.8512
159.95	11.0272
160.60	11.2281
161.24	11.4469
161.89	11.6867
162.54	11.9294
163.18	12.1635
163.83	12.3874
164.48	12.6070
165.13	12.8062
165.78	12.9946
166.43	13.1484
167.07	13.2491
167.72	13.2919
168.38	13.2417
169.03	13.0990
169.68	12.8225
170.32	12.3592
170.97	11.7229
171.62	11.0769
172.27	10.6409
172.92	10.4367
173.56	10.3742
174.21	10.3712
174.86	10.3793
175.51	10.4258
176.16	10.4765
176.81	10.5283
177.46	10.5785
178.10	10.6276
178.75	10.6772
179.40	10.7239
180.05	10.7719
180.70	10.8199
181.35	10.8641
182.00	10.9133
182.64	10.9603
183.29	11.0073
183.94	11.0551
184.59	11.1028
185.24	11.1525
185.89	11.1994
186.54	11.2465
187.19	11.2963
187.84	11.3417
188.48	11.3901
189.13	11.4391
189.79	11.4896
190.43	11.5384
191.08	11.5911
191.73	11.6404
192.38	11.6869
193.03	11.7230
193.68	11.7782
194.33	11.8337
194.98	11.8842
195.63	11.9349
196.28	11.9845
196.93	12.0360
197.58	12.0860
198.22	12.1372
198.88	12.1853
199.53	12.2361
199.99	12.2707