File: 论文/¬€Œƒ/¬€Œƒ/dsc/15%5mm.txt
Filename:	D:\TGAdata\„∆√ŒœÈ\20150506\15%5mm.pdid

Temperature (°„C)	Heat Flow Endo Up (mW)
10.67	1.4901
11.02	0.7952
11.64	1.3854
12.29	2.1375
12.94	2.5151
13.58	2.6670
14.24	2.7330
14.88	2.7677
15.53	2.7921
16.19	2.8131
16.84	2.8335
17.49	2.8537
18.14	2.8751
18.78	2.8941
19.43	2.9116
20.08	2.9268
20.73	2.9448
21.38	2.9654
22.03	2.9837
22.68	3.0027
23.32	3.0222
23.97	3.0420
24.62	3.0621
25.27	3.0813
25.91	3.0996
26.56	3.1205
27.20	3.1409
27.86	3.1590
28.50	3.1800
29.15	3.2020
29.81	3.2218
30.46	3.2433
31.10	3.2630
31.75	3.2826
32.40	3.3031
33.05	3.3240
33.70	3.3435
34.34	3.3659
34.99	3.3871
35.65	3.4083
36.29	3.4288
36.95	3.4506
37.59	3.4725
38.24	3.4949
38.89	3.5155
39.54	3.5374
40.19	3.5611
40.83	3.5833
41.49	3.6061
42.14	3.6292
42.78	3.6530
43.44	3.6770
44.08	3.7020
44.73	3.7248
45.38	3.7482
46.02	3.7703
46.67	3.7941
47.33	3.8171
47.98	3.8424
48.63	3.8665
49.27	3.8896
49.92	3.9128
50.57	3.9373
51.22	3.9610
51.88	3.9835
52.52	4.0059
53.17	4.0282
53.82	4.0513
54.47	4.0735
55.12	4.0953
55.77	4.1169
56.41	4.1389
57.06	4.1612
57.71	4.1843
58.36	4.2063
59.01	4.2263
59.66	4.2514
60.31	4.2723
60.96	4.2939
61.61	4.3173
62.25	4.3405
62.90	4.3628
63.55	4.3867
64.20	4.4085
64.86	4.4312
65.50	4.4554
66.16	4.4813
66.80	4.5040
67.46	4.5276
68.11	4.5523
68.75	4.5761
69.40	4.6001
70.05	4.6253
70.70	4.6511
71.36	4.6746
72.00	4.6983
72.65	4.7226
73.30	4.7475
73.95	4.7726
74.61	4.7996
75.26	4.8253
75.91	4.8511
76.56	4.8775
77.21	4.9047
77.86	4.9283
78.51	4.9552
79.16	4.9819
79.80	5.0093
80.46	5.0352
81.11	5.0639
81.75	5.0938
82.40	5.1206
83.05	5.1452
83.70	5.1719
84.34	5.1985
85.00	5.2272
85.64	5.2573
86.29	5.2865
86.94	5.3141
87.59	5.3440
88.23	5.3723
88.88	5.4014
89.53	5.4315
90.17	5.4594
90.82	5.4899
91.47	5.5207
92.13	5.5528
92.77	5.5823
93.42	5.6124
94.07	5.6427
94.72	5.6751
95.37	5.7076
96.02	5.7376
96.66	5.7704
97.31	5.8007
97.97	5.8347
98.61	5.8686
99.26	5.9013
99.91	5.9347
100.56	5.9672
101.20	6.0012
101.86	6.0344
102.51	6.0683
103.15	6.1026
103.80	6.1349
104.46	6.1689
105.10	6.2031
105.75	6.2388
106.40	6.2727
107.05	6.3096
107.70	6.3423
108.35	6.3753
109.00	6.4127
109.64	6.4491
110.29	6.4851
110.94	6.5206
111.60	6.5580
112.25	6.5944
112.90	6.6338
113.55	6.6690
114.19	6.7077
114.85	6.7447
115.49	6.7836
116.14	6.8232
116.79	6.8613
117.44	6.9003
118.09	6.9402
118.74	6.9782
119.39	7.0189
120.04	7.0598
120.69	7.1014
121.34	7.1428
121.99	7.1842
122.64	7.2256
123.29	7.2632
123.94	7.3051
124.58	7.3506
125.24	7.3948
125.89	7.4397
126.53	7.4824
127.18	7.5262
127.84	7.5708
128.48	7.6137
129.13	7.6600
129.78	7.7045
130.43	7.7501
131.09	7.7976
131.73	7.8462
132.38	7.8935
133.04	7.9415
133.69	7.9887
134.33	8.0364
134.98	8.0850
135.63	8.1353
136.28	8.1853
136.93	8.2377
137.58	8.2891
138.23	8.3416
138.89	8.3940
139.54	8.4490
140.19	8.5047
140.84	8.5543
141.49	8.6167
142.14	8.6809
142.79	8.7489
143.44	8.8209
144.09	8.8969
144.74	8.9734
145.39	9.0478
146.03	9.1092
146.68	9.1551
147.33	9.1873
147.98	9.2147
148.63	9.2489
149.28	9.2995
149.93	9.3704
150.58	9.4616
151.22	9.5638
151.88	9.6665
152.52	9.7630
153.16	9.8530
153.82	9.9370
154.47	10.0225
155.11	10.1157
155.75	10.2232
156.41	10.3471
157.06	10.4922
157.70	10.6553
158.36	10.8371
159.00	11.0419
159.65	11.2723
160.31	11.5269
160.95	11.8006
161.60	12.0818
162.25	12.3647
162.89	12.6242
163.54	12.8631
164.19	13.0445
164.84	13.2505
165.49	13.4233
166.13	13.5508
166.79	13.6115
167.44	13.6593
168.09	13.5476
168.73	13.1969
169.38	12.5764
170.04	11.7498
170.69	10.9982
171.34	10.5716
171.98	10.4132
172.64	10.3869
173.28	10.4104
173.94	10.4515
174.58	10.5008
175.23	10.5490
175.88	10.5950
176.53	10.6435
177.18	10.6920
177.83	10.7400
178.48	10.7902
179.13	10.8425
179.78	10.8929
180.43	10.9417
181.08	10.9922
181.72	11.0424
182.38	11.0940
183.02	11.1444
183.67	11.1934
184.32	11.2432
184.97	11.2938
185.62	11.3448
186.27	11.3994
186.93	11.4502
187.57	11.5059
188.22	11.5584
188.87	11.6118
189.52	11.6657
190.17	11.7189
190.82	11.7720
191.47	11.8256
192.12	11.8805
192.77	11.9347
193.42	11.9883
194.07	12.0426
194.72	12.0972
195.37	12.1526
196.02	12.2070
196.67	12.2600
197.32	12.3172
197.97	12.3718
198.62	12.4256
199.27	12.4811
199.92	12.5346
200.40	12.5751