File: 论文/¬€Œƒ/¬€Œƒ/dsc/20%10mm.txt
Filename:	D:\TGAdata\„∆√ŒœÈ\20150506\20%10mm.pdid

Temperature (°„C)	Heat Flow Endo Up (mW)
10.19	-2.6403
10.58	-2.0407
11.21	-1.1452
11.85	0.3894
12.51	1.4474
13.16	2.0614
13.81	2.4043
14.47	2.5973
15.12	2.7084
15.76	2.7767
16.41	2.8225
17.07	2.8547
17.72	2.8865
18.37	2.9133
19.02	2.9326
19.67	2.9478
20.32	2.9646
20.96	2.9819
21.61	2.9994
22.27	3.0174
22.91	3.0349
23.56	3.0554
24.21	3.0751
24.86	3.0927
25.51	3.1105
26.16	3.1286
26.81	3.1499
27.46	3.1666
28.10	3.1842
28.76	3.2068
29.41	3.2278
30.06	3.2464
30.71	3.2670
31.36	3.2877
32.01	3.3076
32.66	3.3256
33.31	3.3455
33.96	3.3637
34.61	3.3857
35.26	3.4066
35.91	3.4267
36.55	3.4449
37.21	3.4665
37.86	3.4889
38.51	3.5087
39.15	3.5298
39.81	3.5528
40.45	3.5743
41.11	3.5953
41.76	3.6169
42.40	3.6386
43.06	3.6622
43.71	3.6828
44.35	3.7064
45.00	3.7286
45.66	3.7501
46.31	3.7719
46.96	3.7959
47.61	3.8185
48.26	3.8436
48.90	3.8665
49.56	3.8881
50.21	3.9113
50.86	3.9367
51.51	3.9578
52.16	3.9809
52.81	4.0036
53.46	4.0280
54.11	4.0522
54.75	4.0751
55.41	4.0976
56.06	4.1190
56.70	4.1440
57.36	4.1668
58.01	4.1900
58.66	4.2132
59.31	4.2384
59.96	4.2620
60.61	4.2834
61.26	4.3053
61.90	4.3303
62.56	4.3555
63.21	4.3788
63.85	4.4018
64.51	4.4245
65.16	4.4496
65.81	4.4745
66.46	4.4987
67.11	4.5218
67.76	4.5450
68.41	4.5705
69.06	4.5940
69.72	4.6214
70.37	4.6466
71.01	4.6718
71.66	4.6951
72.31	4.7202
72.97	4.7447
73.62	4.7704
74.27	4.7966
74.92	4.8211
75.57	4.8464
76.22	4.8712
76.87	4.8966
77.53	4.9205
78.17	4.9473
78.83	4.9747
79.48	5.0002
80.13	5.0254
80.78	5.0532
81.43	5.0836
82.07	5.1126
82.72	5.1347
83.38	5.1595
84.02	5.1838
84.67	5.2105
85.32	5.2390
85.97	5.2670
86.62	5.2940
87.26	5.3228
87.91	5.3515
88.56	5.3809
89.21	5.4078
89.86	5.4372
90.50	5.4644
91.15	5.4940
91.80	5.5245
92.45	5.5544
93.10	5.5846
93.75	5.6150
94.40	5.6430
95.05	5.6747
95.70	5.7039
96.34	5.7345
97.00	5.7613
97.64	5.7962
98.30	5.8299
98.94	5.8621
99.59	5.8928
100.25	5.9235
100.90	5.9561
101.55	5.9888
102.19	6.0218
102.85	6.0537
103.50	6.0853
104.14	6.1183
104.79	6.1517
105.45	6.1845
106.09	6.2186
106.74	6.2541
107.39	6.2877
108.04	6.3178
108.69	6.3526
109.34	6.3887
109.99	6.4234
110.64	6.4589
111.29	6.4947
111.94	6.5308
112.59	6.5661
113.24	6.6011
113.89	6.6376
114.54	6.6735
115.19	6.7117
115.84	6.7509
116.50	6.7856
117.14	6.8226
117.79	6.8641
118.44	6.9020
119.09	6.9376
119.75	6.9756
120.39	7.0174
121.04	7.0590
121.69	7.0966
122.34	7.1389
123.00	7.1761
123.64	7.2170
124.29	7.2572
124.94	7.3005
125.59	7.3418
126.24	7.3817
126.89	7.4231
127.54	7.4666
128.19	7.5090
128.84	7.5552
129.49	7.5984
130.14	7.6372
130.79	7.6828
131.44	7.7290
132.09	7.7728
132.75	7.8166
133.39	7.8641
134.05	7.9117
134.69	7.9596
135.34	8.0069
136.00	8.0528
136.65	8.1026
137.30	8.1527
137.94	8.2018
138.60	8.2497
139.25	8.3028
139.90	8.3557
140.55	8.4055
141.20	8.4566
141.85	8.5103
142.50	8.5649
143.15	8.6207
143.80	8.6779
144.45	8.7374
145.10	8.8004
145.75	8.8615
146.39	8.9237
147.05	8.9863
147.70	9.0537
148.35	9.1281
149.00	9.2005
149.64	9.2667
150.29	9.3319
150.94	9.3863
151.59	9.4437
152.23	9.4955
152.88	9.5620
153.53	9.6377
154.18	9.7221
154.83	9.8150
155.47	9.9107
156.13	10.0089
156.78	10.1156
157.43	10.2326
158.08	10.3470
158.72	10.4743
159.37	10.6148
160.03	10.7652
160.67	10.9336
161.32	11.1156
161.97	11.3274
162.62	11.5732
163.27	11.8303
163.92	12.1007
164.56	12.3810
165.21	12.6565
165.86	12.9122
166.51	13.1395
167.16	13.3180
167.81	13.4514
168.46	13.5252
169.11	13.5127
169.76	13.3825
170.41	13.0994
171.06	12.6345
171.71	12.0141
172.36	11.3850
173.01	10.9287
173.66	10.6834
174.31	10.5576
174.96	10.5203
175.61	10.5256
176.26	10.5548
176.91	10.5960
177.56	10.6389
178.21	10.6868
178.86	10.7391
179.51	10.7864
180.15	10.8361
180.80	10.8890
181.45	10.9394
182.10	10.9944
182.75	11.0475
183.40	11.0982
184.05	11.1469
184.70	11.1977
185.35	11.2500
186.00	11.3022
186.65	11.3530
187.30	11.4058
187.95	11.4595
188.60	11.5080
189.25	11.5611
189.90	11.6196
190.55	11.6733
191.20	11.7254
191.85	11.7797
192.50	11.8333
193.15	11.8875
193.80	11.9421
194.45	11.9955
195.10	12.0499
195.76	12.1062
196.41	12.1608
197.06	12.2165
197.71	12.2737
198.35	12.3289
199.01	12.3844
199.65	12.4373
200.12	12.4755