File: 论文/¬€Œƒ/¬€Œƒ/dsc/20%5mm.txt
Filename:	D:\TGAdata\„∆√ŒœÈ\20150506\20%5mm.pdid

Temperature (°„C)	Heat Flow Endo Up (mW)
24.30	9.0603
20.40	5.0875
16.69	1.7728
13.21	-9.1220
12.58	-15.8657
13.14	-7.8609
13.77	-1.7677
14.41	1.1828
15.06	2.4101
15.71	2.8979
16.37	3.0948
17.01	3.1798
17.66	3.2250
18.31	3.2531
18.96	3.2724
19.61	3.2874
20.26	3.3044
20.90	3.3212
21.55	3.3377
22.20	3.3555
22.85	3.3716
23.50	3.3889
24.14	3.4070
24.80	3.4229
25.44	3.4387
26.09	3.4568
26.73	3.4757
27.38	3.4913
28.04	3.5095
28.69	3.5289
29.33	3.5482
29.99	3.5649
30.63	3.5826
31.29	3.6006
31.93	3.6182
32.58	3.6361
33.23	3.6538
33.88	3.6730
34.52	3.6931
35.17	3.7124
35.83	3.7312
36.47	3.7500
37.13	3.7694
37.77	3.7878
38.42	3.8070
39.07	3.8267
39.72	3.8479
40.36	3.8681
41.02	3.8875
41.66	3.9084
42.31	3.9293
42.97	3.9504
43.61	3.9717
44.26	3.9926
44.91	4.0125
45.55	4.0326
46.21	4.0542
46.85	4.0742
47.51	4.0955
48.15	4.1175
48.80	4.1386
49.45	4.1568
50.10	4.1789
50.75	4.1989
51.40	4.2204
52.05	4.2423
52.70	4.2647
53.34	4.2832
54.00	4.3061
54.65	4.3270
55.30	4.3471
55.95	4.3688
56.60	4.3906
57.25	4.4120
57.90	4.4349
58.55	4.4558
59.20	4.4786
59.84	4.5005
60.49	4.5210
61.14	4.5415
61.79	4.5639
62.44	4.5861
63.09	4.6090
63.74	4.6304
64.39	4.6522
65.04	4.6754
65.68	4.6975
66.34	4.7207
66.99	4.7423
67.64	4.7648
68.29	4.7871
68.94	4.8097
69.59	4.8334
70.23	4.8574
70.88	4.8798
71.53	4.9017
72.18	4.9251
72.84	4.9485
73.49	4.9726
74.14	4.9961
74.79	5.0193
75.44	5.0426
76.09	5.0663
76.74	5.0920
77.39	5.1153
78.04	5.1376
78.69	5.1622
79.34	5.1870
79.99	5.2114
80.64	5.2372
81.28	5.2628
81.94	5.2868
82.58	5.3076
83.23	5.3316
83.88	5.3569
84.53	5.3814
85.17	5.4095
85.83	5.4334
86.47	5.4604
87.13	5.4871
87.77	5.5128
88.42	5.5387
89.06	5.5673
89.71	5.5941
90.35	5.6214
91.00	5.6478
91.65	5.6770
92.30	5.7061
92.95	5.7329
93.59	5.7613
94.25	5.7897
94.89	5.8193
95.54	5.8471
96.19	5.8800
96.84	5.9059
97.49	5.9386
98.14	5.9720
98.80	6.0001
99.44	6.0303
100.08	6.0617
100.74	6.0928
101.39	6.1232
102.04	6.1561
102.69	6.1868
103.34	6.2166
103.98	6.2486
104.63	6.2825
105.28	6.3148
105.93	6.3468
106.58	6.3812
107.23	6.4133
107.88	6.4434
108.53	6.4775
109.18	6.5093
109.83	6.5431
110.48	6.5776
111.13	6.6116
111.78	6.6461
112.43	6.6792
113.07	6.7155
113.73	6.7502
114.37	6.7836
115.03	6.8194
115.67	6.8582
116.32	6.8940
116.97	6.9303
117.62	6.9674
118.27	7.0036
118.92	7.0402
119.57	7.0796
120.22	7.1186
120.86	7.1570
121.52	7.1956
122.17	7.2351
122.82	7.2747
123.47	7.3147
124.12	7.3537
124.76	7.3961
125.41	7.4360
126.06	7.4781
126.71	7.5186
127.36	7.5594
128.01	7.6032
128.66	7.6464
129.31	7.6868
129.96	7.7294
130.61	7.7731
131.26	7.8176
131.91	7.8629
132.55	7.9076
133.21	7.9533
133.86	7.9997
134.51	8.0456
135.16	8.0928
135.81	8.1381
136.46	8.1873
137.11	8.2359
137.75	8.2838
138.41	8.3328
139.06	8.3857
139.71	8.4377
140.36	8.4912
141.01	8.5442
141.66	8.6006
142.31	8.6586
142.96	8.7201
143.61	8.7840
144.26	8.8520
144.91	8.9213
145.56	8.9854
146.21	9.0437
146.86	9.0971
147.50	9.1414
148.15	9.1807
148.80	9.2230
149.45	9.2794
150.10	9.3508
150.75	9.4379
151.40	9.5308
152.04	9.6258
152.69	9.7181
153.34	9.8103
153.99	9.8971
154.63	9.9821
155.28	10.0730
155.93	10.1723
156.58	10.2846
157.22	10.4089
157.87	10.5479
158.52	10.7052
159.17	10.8786
159.82	11.0692
160.47	11.2755
161.12	11.4781
161.76	11.6673
162.42	11.8812
163.06	12.0949
163.71	12.2977
164.36	12.4906
165.01	12.6770
165.65	12.8623
166.30	13.0418
166.95	13.1943
167.60	13.3183
168.25	13.3949
168.90	13.3839
169.55	13.2345
170.20	12.8767
170.85	12.2777
171.50	11.4805
172.15	10.7693
172.80	10.4261
173.44	10.3171
174.10	10.3090
174.75	10.3420
175.40	10.3872
176.05	10.4394
176.69	10.4952
177.34	10.5485
178.00	10.6037
178.65	10.6551
179.29	10.7090
179.94	10.7629
180.59	10.8150
181.24	10.8667
181.88	10.9211
182.53	10.9739
183.18	11.0250
183.83	11.0757
184.48	11.1258
185.13	11.1786
185.78	11.2289
186.43	11.2817
187.08	11.3372
187.72	11.3883
188.38	11.4373
189.03	11.4910
189.68	11.5463
190.33	11.5996
190.98	11.6505
191.63	11.7057
192.28	11.7598
192.93	11.8124
193.58	11.8659
194.23	11.9209
194.88	11.9751
195.53	12.0298
196.18	12.0849
196.83	12.1424
197.48	12.1988
198.13	12.2568
198.78	12.3162
199.43	12.3478
199.89	12.3749