File: 论文/tga txt new/10%10mm.txt
Filename:	D:\TGAdata\„∆√ŒœÈ\Ã∆–°º™\10%10mm.t6d

Temperature (°„C)	Weight % (%)
28.91	100.003
28.91	100.019
29.03	100.036
29.48	100.081
30.44	100.100
31.77	100.107
33.32	100.110
35.03	100.103
36.82	100.110
38.69	100.103
40.60	100.103
42.55	100.120
44.52	100.120
46.50	100.110
48.50	100.120
50.52	100.113
52.55	100.103
54.59	100.110
56.64	100.097
58.67	100.094
60.70	100.094
62.76	100.087
64.83	100.074
66.89	100.074
68.95	100.071
71.01	100.061
73.06	100.058
75.11	100.055
77.16	100.048
79.21	100.048
81.25	100.032
83.29	100.042
85.34	100.029
87.40	100.010
89.45	100.010
91.50	100.010
93.55	100.000
95.60	100.003
97.66	100.003
99.71	99.987
101.76	99.987
103.82	99.990
105.87	99.981
107.88	99.964
109.87	99.958
111.84	99.971
113.79	99.948
115.73	99.935
117.66	99.935
119.58	99.919
121.50	99.922
123.44	99.922
125.41	99.893
127.38	99.887
129.33	99.881
131.28	99.900
133.24	99.887
135.20	99.881
137.15	99.864
139.09	99.861
141.03	99.848
142.96	99.848
144.89	99.832
146.82	99.842
148.76	99.842
150.68	99.819
152.60	99.809
154.53	99.800
156.47	99.813
158.40	99.803
160.32	99.806
162.23	99.797
164.16	99.784
166.08	99.771
167.99	99.774
169.91	99.771
171.83	99.755
173.76	99.742
175.69	99.745
177.63	99.748
179.61	99.735
181.58	99.732
183.56	99.725
185.56	99.716
187.55	99.719
189.53	99.709
191.51	99.700
193.50	99.700
195.48	99.700
197.46	99.716
199.44	99.690
201.43	99.709
203.41	99.690
205.39	99.693
207.36	99.700
209.33	99.687
211.31	99.690
213.32	99.680
215.31	99.677
217.31	99.674
219.29	99.687
221.30	99.680
223.28	99.661
225.25	99.671
227.23	99.664
229.20	99.651
231.17	99.635
233.15	99.638
235.16	99.638
237.16	99.638
239.15	99.619
241.13	99.625
243.11	99.616
245.10	99.603
247.11	99.612
249.12	99.599
251.11	99.590
253.09	99.577
255.08	99.570
257.07	99.557
259.01	99.545
260.96	99.535
262.90	99.545
264.86	99.519
266.81	99.503
268.76	99.470
270.72	99.460
272.65	99.438
274.59	99.412
276.53	99.396
278.46	99.367
280.37	99.341
282.32	99.315
284.26	99.276
286.20	99.264
288.13	99.234
290.05	99.212
291.97	99.176
293.91	99.150
295.85	99.115
297.80	99.073
299.76	99.041
301.74	99.002
303.75	98.966
305.76	98.934
307.77	98.908
309.78	98.859
311.79	98.808
313.81	98.753
315.86	98.685
317.88	98.637
319.91	98.553
321.92	98.511
323.93	98.423
325.93	98.326
327.92	98.236
329.92	98.126
331.94	98.016
333.96	97.884
335.97	97.758
337.97	97.603
339.98	97.425
342.00	97.222
344.02	97.011
346.02	96.766
348.05	96.537
350.08	96.265
352.12	95.974
354.15	95.661
356.17	95.319
358.21	94.937
360.22	94.524
362.25	94.097
364.26	93.632
366.28	93.144
368.27	92.614
370.27	92.065
372.24	91.474
374.22	90.880
376.22	90.237
378.21	89.581
380.18	88.918
382.15	88.214
384.12	87.471
386.10	86.708
388.08	85.897
390.07	85.035
392.05	84.117
394.03	83.129
396.01	82.062
398.01	80.945
400.00	79.730
401.99	78.444
404.00	77.074
405.97	75.617
407.95	74.076
409.92	72.467
411.89	70.787
413.87	69.000
415.86	67.159
417.84	65.208
419.81	63.178
421.78	61.040
423.74	58.827
425.70	56.513
427.64	54.103
429.65	51.596
431.63	49.024
433.62	46.362
435.61	43.629
437.59	40.860
439.55	38.069
441.55	35.293
443.54	32.537
445.53	29.843
447.54	27.207
449.54	24.586
451.54	22.060
453.56	19.656
455.57	17.378
457.60	15.285
459.65	13.414
461.68	11.757
463.74	10.348
465.78	9.188
467.81	8.203
469.87	7.382
471.92	6.675
473.96	6.061
475.99	5.531
478.00	5.079
480.04	4.701
482.09	4.378
484.11	4.164
486.13	4.022
488.12	3.941
490.12	3.909
492.12	3.880
494.14	3.867
496.15	3.844
498.17	3.819
500.19	3.783
502.21	3.764
504.23	3.712
506.28	3.667
508.33	3.654
510.33	3.625
512.29	3.589
514.27	3.576
516.27	3.518
518.28	3.496
520.29	3.444
522.27	3.412
524.26	3.379
526.25	3.347
528.21	3.282
530.16	3.234
532.16	3.182
534.17	3.144
536.16	3.118
538.15	3.066
540.16	3.021
542.16	2.969
544.17	2.933
546.15	2.895
548.16	2.843
550.21	2.795
552.23	2.746
554.19	2.694
556.22	2.659
558.21	2.636
560.19	2.597
562.22	2.552
564.24	2.491
566.27	2.462
568.26	2.420
570.32	2.387
572.35	2.342
574.33	2.304
576.33	2.258
578.30	2.223
580.34	2.184
582.40	2.129
584.48	2.093
586.53	2.055
588.26	2.003