File: 论文/tga txt new/10%5mm.txt
Filename:	D:\TGAdata\„∆√ŒœÈ\Ã∆–°º™\10%5mm.t6d

Temperature (°„C)	Weight % (%)
28.12	100.021
28.13	100.035
28.37	100.035
28.98	100.055
30.09	100.080
31.51	100.087
33.13	100.097
34.87	100.118
36.70	100.121
38.58	100.125
40.51	100.132
42.47	100.139
44.45	100.149
46.44	100.156
48.45	100.160
50.47	100.153
52.49	100.149
54.53	100.170
56.57	100.160
58.62	100.170
60.68	100.166
62.73	100.163
64.77	100.142
66.83	100.139
68.88	100.132
70.94	100.139
73.00	100.125
75.06	100.114
77.11	100.125
79.16	100.108
81.22	100.125
83.23	100.114
85.28	100.114
87.30	100.118
89.35	100.111
91.41	100.118
93.44	100.080
95.48	100.080
97.54	100.083
99.61	100.097
101.66	100.083
103.70	100.069
105.73	100.087
107.73	100.063
109.71	100.087
111.67	100.063
113.63	100.063
115.57	100.059
117.51	100.059
119.44	100.083
121.37	100.049
123.30	100.049
125.28	100.049
127.24	100.035
129.21	100.028
131.18	100.031
133.13	100.024
135.10	100.028
137.05	100.014
139.01	100.007
140.97	100.003
142.91	99.986
144.84	100.003
146.78	100.000
148.71	99.983
150.65	99.986
152.58	99.976
154.51	99.976
156.44	99.965
158.37	99.969
160.29	99.955
162.21	99.958
164.13	99.955
166.06	99.945
167.98	99.927
169.90	99.934
171.82	99.945
173.75	99.920
175.69	99.924
177.63	99.910
179.61	99.910
181.58	99.892
183.58	99.889
185.57	99.885
187.56	99.882
189.54	99.879
191.52	99.872
193.49	99.854
195.47	99.865
197.44	99.858
199.41	99.844
201.40	99.847
203.37	99.840
205.34	99.844
207.31	99.844
209.30	99.823
211.29	99.809
213.26	99.806
215.25	99.809
217.23	99.806
219.23	99.802
221.22	99.802
223.20	99.785
225.17	99.795
227.13	99.778
229.10	99.771
231.08	99.768
233.06	99.778
235.03	99.754
237.01	99.757
239.00	99.754
240.97	99.743
242.96	99.736
244.94	99.726
246.94	99.733
248.93	99.719
250.93	99.702
252.94	99.691
254.94	99.681
256.94	99.667
258.90	99.670
260.85	99.646
262.78	99.639
264.72	99.625
266.66	99.622
268.60	99.605
270.56	99.587
272.51	99.563
274.45	99.556
276.39	99.525
278.31	99.507
280.23	99.473
282.16	99.442
284.09	99.421
286.04	99.390
287.98	99.355
289.92	99.337
291.84	99.330
293.78	99.282
295.72	99.258
297.67	99.219
299.62	99.192
301.59	99.161
303.59	99.115
305.60	99.077
307.60	99.043
309.59	99.011
311.61	98.956
313.61	98.900
315.62	98.845
317.63	98.789
319.64	98.737
321.64	98.675
323.64	98.609
325.65	98.543
327.64	98.453
329.63	98.356
331.63	98.252
333.62	98.141
335.63	97.995
337.62	97.842
339.64	97.683
341.65	97.492
343.67	97.305
345.68	97.086
347.69	96.850
349.71	96.604
351.73	96.316
353.76	96.018
355.79	95.688
357.83	95.314
359.86	94.915
361.87	94.495
363.88	94.030
365.88	93.531
367.86	93.007
369.83	92.441
371.80	91.859
373.77	91.234
375.74	90.596
377.72	89.954
379.69	89.274
381.66	88.560
383.64	87.831
385.61	87.065
387.59	86.218
389.58	85.323
391.58	84.373
393.59	83.336
395.57	82.201
397.56	80.987
399.56	79.676
401.56	78.278
403.53	76.825
405.50	75.271
407.46	73.623
409.43	71.888
411.41	70.078
413.38	68.166
415.33	66.179
417.29	64.087
419.27	61.915
421.24	59.664
423.24	57.305
425.24	54.881
427.21	52.355
429.19	49.754
431.15	47.086
433.12	44.367
435.10	41.592
437.10	38.789
439.10	35.986
441.09	33.169
443.08	30.366
445.08	27.602
447.08	24.913
449.07	22.312
451.06	19.814
453.08	17.473
455.09	15.329
457.12	13.365
459.15	11.596
461.21	10.112
463.26	8.853
465.30	7.795
467.31	6.927
469.34	6.195
471.39	5.533
473.43	4.992
475.46	4.513
477.48	4.107
479.52	3.767
481.53	3.521
483.53	3.375
485.54	3.306
487.56	3.271
489.56	3.243
491.56	3.205
493.56	3.174
495.57	3.143
497.58	3.112
499.60	3.066
501.64	3.046
503.68	3.008
505.70	2.969
507.71	2.907
509.69	2.872
511.67	2.841
513.67	2.792
515.66	2.747
517.65	2.709
519.62	2.685
521.60	2.636
523.57	2.609
525.56	2.588
527.56	2.553
529.58	2.518
531.58	2.480
533.59	2.442
535.57	2.390
537.56	2.362
539.56	2.338
541.57	2.303
543.57	2.255
545.54	2.224
547.55	2.203
549.56	2.164
551.55	2.123
553.56	2.095
555.58	2.054
557.59	2.015
559.58	1.984
561.59	1.953
563.61	1.918
565.65	1.877
567.65	1.825
569.67	1.776
571.68	1.735
573.67	1.696
575.66	1.658
577.66	1.617
579.74	1.578
581.82	1.561
583.86	1.523
585.94	1.495
587.70	1.460