File: 论文/tga txt new/15%5mm.txt
Filename:	D:\TGAdata\„∆√ŒœÈ\Ã∆–°º™\15%5mm.t6d

Temperature (°„C)	Weight % (%)
28.11	100.095
28.12	100.103
28.36	100.201
28.99	100.205
30.10	100.236
31.52	100.236
33.15	100.244
34.91	100.264
36.74	100.283
38.63	100.276
40.56	100.358
42.51	100.378
44.50	100.386
46.49	100.417
48.51	100.441
50.54	100.445
52.57	100.456
54.61	100.445
56.64	100.448
58.67	100.464
60.71	100.480
62.74	100.464
64.78	100.448
66.83	100.441
68.88	100.425
70.95	100.401
73.02	100.405
75.09	100.397
77.14	100.405
79.20	100.409
81.25	100.382
83.31	100.374
85.36	100.366
87.41	100.374
89.46	100.370
91.50	100.382
93.55	100.354
95.60	100.327
97.65	100.346
99.70	100.327
101.75	100.319
103.79	100.311
105.82	100.307
107.83	100.303
109.80	100.299
111.76	100.311
113.72	100.287
115.67	100.276
117.61	100.260
119.54	100.256
121.47	100.240
123.40	100.225
125.36	100.221
127.33	100.221
129.30	100.197
131.25	100.197
133.20	100.205
135.14	100.181
137.10	100.166
139.04	100.166
140.98	100.166
142.92	100.138
144.85	100.122
146.79	100.103
148.72	100.114
150.65	100.107
152.57	100.095
154.49	100.095
156.41	100.071
158.32	100.071
160.25	100.060
162.18	100.055
164.09	100.060
166.02	100.075
167.95	100.060
169.88	100.052
171.80	100.052
173.73	100.036
175.69	100.032
177.65	100.020
179.61	100.028
181.59	100.013
183.58	100.013
185.57	100.013
187.54	100.008
189.52	99.989
191.50	99.965
193.47	99.977
195.44	99.981
197.41	99.985
199.39	99.973
201.36	99.961
203.35	99.946
205.33	99.942
207.31	99.946
209.29	99.938
211.27	99.914
213.26	99.934
215.25	99.906
217.24	99.895
219.23	99.898
221.22	99.871
223.20	99.887
225.17	99.875
227.14	99.859
229.11	99.847
231.08	99.851
233.05	99.824
235.04	99.812
237.01	99.792
239.00	99.765
240.99	99.761
242.96	99.738
244.94	99.714
246.94	99.694
248.93	99.675
250.93	99.631
252.92	99.620
254.92	99.596
256.91	99.596
258.88	99.580
260.84	99.557
262.79	99.533
264.73	99.482
266.66	99.447
268.61	99.435
270.54	99.400
272.48	99.384
274.42	99.364
276.35	99.309
278.28	99.270
280.21	99.270
282.14	99.207
284.07	99.164
286.03	99.156
287.97	99.121
289.91	99.082
291.84	99.054
293.79	99.019
295.74	98.979
297.68	98.920
299.63	98.881
301.62	98.807
303.61	98.759
305.62	98.689
307.63	98.634
309.63	98.575
311.64	98.485
313.67	98.406
315.69	98.288
317.70	98.194
319.71	98.072
321.72	97.942
323.71	97.809
325.72	97.648
327.72	97.498
329.73	97.306
331.73	97.117
333.75	96.937
335.76	96.713
337.77	96.505
339.77	96.253
341.77	95.970
343.78	95.656
345.79	95.342
347.81	94.938
349.81	94.521
351.83	94.081
353.83	93.586
355.86	93.040
357.89	92.483
359.93	91.870
361.95	91.186
363.97	90.471
365.98	89.717
367.98	88.888
369.96	88.052
371.93	87.184
373.92	86.276
375.89	85.314
377.86	84.352
379.84	83.401
381.81	82.419
383.78	81.425
385.76	80.436
387.75	79.395
389.73	78.354
391.74	77.277
393.74	76.134
395.72	74.944
397.71	73.668
399.70	72.305
401.68	70.851
403.67	69.319
405.67	67.677
407.65	65.918
409.62	64.075
411.60	62.119
413.57	60.077
415.53	57.920
417.49	55.721
419.44	53.403
421.41	50.987
423.39	48.532
425.36	45.999
427.33	43.410
429.32	40.771
431.31	38.100
433.31	35.441
435.29	32.754
437.28	30.185
439.26	27.612
441.24	25.169
443.24	22.875
445.23	20.742
447.23	18.727
449.26	16.905
451.28	15.310
453.29	13.931
455.34	12.788
457.37	11.857
459.39	11.056
461.43	10.341
463.45	9.716
465.48	9.194
467.53	8.715
469.54	8.287
471.57	7.914
473.60	7.615
475.62	7.364
477.63	7.195
479.64	7.081
481.65	7.034
483.66	7.042
485.66	7.014
487.66	6.963
489.67	6.916
491.71	6.880
493.74	6.849
495.76	6.798
497.78	6.774
499.80	6.735
501.81	6.708
503.82	6.684
505.83	6.645
507.84	6.602
509.83	6.578
511.80	6.539
513.80	6.507
515.78	6.456
517.76	6.421
519.75	6.393
521.76	6.362
523.77	6.319
525.75	6.279
527.73	6.224
529.73	6.181
531.72	6.134
533.73	6.059
535.74	6.044
537.74	5.997
539.73	5.942
541.70	5.883
543.70	5.847
545.73	5.784
547.75	5.749
549.78	5.690
551.80	5.659
553.82	5.608
555.83	5.576
557.84	5.545
559.84	5.466
561.85	5.451
563.86	5.411
565.88	5.352
567.87	5.341
569.88	5.301
571.90	5.254
573.93	5.199
575.97	5.164
577.98	5.121
580.01	5.062
582.08	5.026
584.13	4.987
586.18	4.932
588.25	4.869