File: 论文/tga txt new/20%10mm.txt
Filename:	D:\TGAdata\„∆√ŒœÈ\Ã∆–°º™\20%10mm.t6d

Temperature (°„C)	Weight % (%)
28.38	100.017
28.39	100.027
28.59	100.024
29.15	100.048
30.20	100.041
31.61	100.051
33.21	100.072
34.96	100.051
36.79	100.069
38.67	100.058
40.58	100.048
42.53	100.065
44.52	100.082
46.52	100.062
48.52	100.048
50.54	100.045
52.57	100.034
54.61	100.017
56.65	100.020
58.69	100.024
60.73	99.996
62.77	100.003
64.83	99.993
66.88	99.990
68.92	99.973
70.97	99.959
73.02	99.935
75.08	99.928
77.13	99.921
79.18	99.914
81.23	99.911
83.28	99.880
85.34	99.859
87.39	99.852
89.45	99.849
91.51	99.845
93.56	99.835
95.61	99.831
97.67	99.828
99.73	99.828
101.78	99.821
103.82	99.801
105.86	99.787
107.87	99.783
109.83	99.763
111.78	99.773
113.73	99.766
115.68	99.759
117.62	99.739
119.56	99.742
121.49	99.722
123.43	99.728
125.40	99.722
127.36	99.722
129.33	99.701
131.30	99.704
133.25	99.684
135.20	99.704
137.15	99.690
139.10	99.687
141.04	99.684
142.97	99.677
144.90	99.670
146.84	99.646
148.75	99.639
150.69	99.632
152.60	99.639
154.52	99.622
156.43	99.625
158.36	99.618
160.29	99.625
162.22	99.625
164.13	99.612
166.05	99.615
167.96	99.612
169.87	99.622
171.78	99.615
173.72	99.605
175.69	99.594
177.67	99.591
179.64	99.591
181.62	99.591
183.61	99.584
185.59	99.580
187.58	99.580
189.55	99.577
191.53	99.574
193.51	99.567
195.48	99.556
197.45	99.556
199.42	99.560
201.41	99.567
203.40	99.570
205.39	99.577
207.37	99.560
209.34	99.543
211.32	99.539
213.31	99.543
215.31	99.525
217.29	99.536
219.30	99.539
221.30	99.532
223.28	99.536
225.26	99.529
227.25	99.529
229.22	99.525
231.19	99.522
233.16	99.498
235.13	99.484
237.11	99.484
239.10	99.464
241.09	99.471
243.07	99.460
245.04	99.450
247.03	99.436
249.03	99.433
251.04	99.422
253.03	99.398
255.02	99.398
257.01	99.385
258.97	99.361
260.92	99.336
262.88	99.319
264.84	99.295
266.79	99.268
268.73	99.254
270.68	99.233
272.62	99.202
274.55	99.161
276.47	99.134
278.39	99.110
280.32	99.079
282.25	99.055
284.20	99.020
286.13	98.976
288.07	98.927
289.99	98.893
291.94	98.845
293.89	98.817
295.83	98.793
297.78	98.745
299.72	98.697
301.68	98.666
303.67	98.590
305.68	98.556
307.70	98.494
309.70	98.432
311.73	98.364
313.74	98.298
315.77	98.223
317.79	98.126
319.80	98.027
321.80	97.937
323.81	97.807
325.82	97.680
327.82	97.539
329.82	97.377
331.82	97.202
333.84	97.020
335.85	96.813
337.86	96.580
339.86	96.312
341.89	96.016
343.91	95.727
345.93	95.394
347.93	95.026
349.96	94.620
352.00	94.180
354.03	93.713
356.06	93.204
358.11	92.640
360.16	92.059
362.19	91.444
364.19	90.784
366.20	90.086
368.19	89.340
370.17	88.560
372.16	87.769
374.14	86.958
376.11	86.092
378.09	85.250
380.07	84.380
382.05	83.493
384.06	82.606
386.05	81.702
388.03	80.788
390.03	79.836
392.03	78.846
394.02	77.811
396.00	76.704
398.00	75.521
399.99	74.287
401.97	72.957
403.97	71.541
405.94	70.066
407.90	68.519
409.88	66.870
411.87	65.147
413.85	63.322
415.83	61.418
417.80	59.441
419.75	57.354
421.71	55.185
423.69	52.944
425.66	50.607
427.62	48.187
429.60	45.684
431.59	43.141
433.56	40.549
435.55	37.885
437.54	35.220
439.51	32.539
441.50	29.899
443.49	27.307
445.49	24.733
447.50	22.258
449.52	19.917
451.53	17.693
453.55	15.685
455.58	13.908
457.61	12.351
459.66	11.079
461.70	10.044
463.73	9.168
465.77	8.436
467.79	7.834
469.81	7.353
471.84	6.923
473.89	6.562
475.93	6.260
477.95	6.060
479.98	5.906
481.99	5.854
484.00	5.796
486.03	5.754
488.05	5.741
490.07	5.689
492.10	5.661
494.10	5.624
496.12	5.589
498.15	5.572
500.17	5.531
502.19	5.504
504.21	5.490
506.24	5.428
508.26	5.397
510.24	5.373
512.22	5.335
514.21	5.314
516.21	5.280
518.18	5.225
520.18	5.215
522.16	5.184
524.15	5.139
526.16	5.112
528.12	5.074
530.12	5.015
532.13	4.977
534.11	4.957
536.08	4.919
538.09	4.878
540.10	4.843
542.07	4.799
544.07	4.768
546.08	4.730
548.08	4.689
550.10	4.654
552.10	4.596
554.11	4.565
556.13	4.520
558.11	4.465
560.12	4.438
562.15	4.393
564.15	4.369
566.18	4.324
568.19	4.266
570.21	4.225
572.23	4.187
574.24	4.142
576.27	4.098
578.31	4.060
580.36	4.012
582.40	3.970
584.48	3.929
586.56	3.881
588.30	3.847