File: 论文/tga txt new/20%5mm.txt
Filename:	D:\TGAdata\„∆√ŒœÈ\Ã∆–°º™\20%5mm.t6d

Temperature (°„C)	Weight % (%)
28.30	100.015
28.31	100.009
28.55	100.025
29.16	100.049
30.25	100.043
31.67	100.058
33.29	100.071
35.04	100.068
36.86	100.074
38.75	100.068
40.68	100.074
42.64	100.092
44.62	100.098
46.63	100.092
48.64	100.101
50.65	100.101
52.67	100.098
54.71	100.105
56.76	100.120
58.81	100.111
60.85	100.098
62.88	100.092
64.92	100.089
66.97	100.095
69.03	100.098
71.10	100.098
73.17	100.083
75.24	100.071
77.29	100.064
79.34	100.058
81.39	100.055
83.45	100.046
85.51	100.037
87.57	100.025
89.64	100.028
91.68	100.018
93.72	100.012
95.76	100.006
97.80	100.009
99.85	99.994
101.92	99.985
103.98	99.978
106.03	99.972
108.04	99.972
110.02	99.969
111.97	99.942
113.92	99.926
115.88	99.914
117.84	99.908
119.78	99.883
121.71	99.877
123.63	99.880
125.59	99.868
127.56	99.868
129.53	99.849
131.49	99.831
133.46	99.822
135.41	99.812
137.36	99.788
139.31	99.766
141.25	99.763
143.19	99.766
145.13	99.751
147.08	99.739
149.02	99.742
150.95	99.729
152.90	99.729
154.83	99.708
156.76	99.705
158.68	99.702
160.61	99.677
162.52	99.677
164.45	99.677
166.37	99.671
168.29	99.668
170.21	99.671
172.14	99.665
174.08	99.668
176.04	99.656
178.01	99.653
179.96	99.640
181.91	99.634
183.88	99.616
185.86	99.628
187.84	99.603
189.83	99.619
191.80	99.591
193.78	99.588
195.77	99.585
197.75	99.579
199.73	99.585
201.71	99.576
203.69	99.557
205.68	99.545
207.67	99.542
209.67	99.533
211.65	99.539
213.64	99.530
215.63	99.530
217.63	99.526
219.64	99.505
221.64	99.520
223.61	99.511
225.57	99.484
227.54	99.505
229.51	99.490
231.50	99.480
233.47	99.474
235.45	99.465
237.43	99.443
239.42	99.437
241.40	99.425
243.40	99.422
245.39	99.404
247.38	99.385
249.36	99.367
251.36	99.360
253.34	99.345
255.35	99.314
257.36	99.299
259.34	99.284
261.29	99.271
263.25	99.253
265.19	99.228
267.14	99.195
269.10	99.182
271.06	99.148
272.99	99.127
274.92	99.108
276.85	99.084
278.78	99.068
280.70	99.010
282.62	98.992
284.55	98.970
286.50	98.949
288.43	98.921
290.37	98.912
292.31	98.866
294.25	98.835
296.19	98.810
298.14	98.783
300.09	98.739
302.06	98.693
304.07	98.678
306.07	98.635
308.09	98.577
310.09	98.543
312.11	98.497
314.14	98.444
316.15	98.389
318.18	98.334
320.19	98.251
322.18	98.183
324.17	98.085
326.18	97.986
328.17	97.879
330.17	97.740
332.17	97.608
334.19	97.457
336.18	97.304
338.18	97.119
340.18	96.916
342.22	96.671
344.24	96.428
346.26	96.148
348.29	95.856
350.31	95.524
352.35	95.152
354.39	94.749
356.41	94.285
358.46	93.799
360.49	93.252
362.51	92.665
364.52	92.031
366.54	91.352
368.53	90.632
370.49	89.864
372.46	89.077
374.44	88.244
376.40	87.370
378.38	86.494
380.36	85.578
382.34	84.683
384.32	83.761
386.31	82.845
388.30	81.923
390.28	80.991
392.27	80.066
394.27	79.104
396.29	78.114
398.30	77.068
400.29	75.952
402.29	74.775
404.27	73.502
406.24	72.171
408.22	70.747
410.19	69.232
412.17	67.652
414.13	65.976
416.08	64.208
418.04	62.327
420.01	60.371
422.00	58.299
423.99	56.132
425.96	53.915
427.92	51.576
429.90	49.104
431.87	46.546
433.87	43.924
435.86	41.209
437.85	38.445
439.84	35.632
441.82	32.825
443.82	30.021
445.82	27.285
447.83	24.650
449.81	22.133
451.84	19.747
453.86	17.524
455.88	15.476
457.93	13.592
459.97	11.993
461.99	10.644
464.03	9.546
466.09	8.657
468.12	7.935
470.14	7.336
472.18	6.816
474.23	6.389
476.28	6.044
478.31	5.755
480.34	5.537
482.36	5.392
484.36	5.331
486.36	5.279
488.37	5.239
490.39	5.230
492.39	5.220
494.42	5.190
496.43	5.162
498.45	5.134
500.47	5.094
502.48	5.070
504.50	5.042
506.52	4.999
508.52	4.981
510.48	4.937
512.48	4.913
514.48	4.879
516.46	4.861
518.46	4.821
520.44	4.768
522.38	4.725
524.36	4.692
526.36	4.664
528.35	4.618
530.33	4.590
532.36	4.535
534.35	4.501
536.32	4.455
538.33	4.409
540.35	4.372
542.33	4.338
544.32	4.289
546.31	4.252
548.33	4.206
550.35	4.150
552.34	4.141
554.31	4.086
556.31	4.055
558.33	4.012
560.33	3.963
562.36	3.923
564.39	3.880
566.41	3.834
568.41	3.800
570.42	3.763
572.44	3.708
574.46	3.683
576.49	3.646
578.53	3.612
580.57	3.569
582.63	3.542
584.70	3.489
586.75	3.453
588.47	3.425