File: 论文/tga txt new/30%10mm.txt
Filename:	D:\TGAdata\„∆√ŒœÈ\Ã∆–°º™\30%10mm.t6d

Temperature (°„C)	Weight % (%)
29.79	100.022
29.78	100.045
29.80	100.028
30.11	100.037
30.88	100.057
32.08	100.067
33.56	100.071
35.21	100.061
36.98	100.061
38.83	100.061
40.74	100.063
42.68	100.069
44.65	100.053
46.64	100.059
48.64	100.053
50.64	100.057
52.66	100.053
54.69	100.047
56.73	100.042
58.77	100.034
60.81	100.022
62.86	100.010
64.91	100.010
66.96	100.006
69.03	99.986
71.08	99.978
73.14	99.972
75.21	99.960
77.27	99.947
79.32	99.941
81.37	99.937
83.41	99.927
85.46	99.909
87.52	99.893
89.57	99.893
91.63	99.884
93.69	99.880
95.76	99.876
97.81	99.864
99.86	99.836
101.91	99.832
103.96	99.824
106.02	99.822
108.05	99.805
110.04	99.801
112.00	99.787
113.95	99.777
115.88	99.765
117.82	99.751
119.74	99.735
121.67	99.733
123.59	99.724
125.56	99.706
127.53	99.692
129.49	99.692
131.44	99.678
133.39	99.662
135.35	99.716
137.31	99.652
139.26	99.631
141.21	99.617
143.16	99.615
145.11	99.637
147.06	99.627
148.99	99.585
150.92	99.575
152.84	99.568
154.76	99.554
156.66	99.546
158.58	99.530
160.50	99.526
162.41	99.518
164.33	99.498
166.28	99.487
168.22	99.481
170.14	99.477
172.06	99.459
173.97	99.455
175.92	99.475
177.88	99.502
179.82	99.481
181.77	99.433
183.75	99.421
185.73	99.408
187.72	99.406
189.73	99.396
191.74	99.384
193.74	99.384
195.75	99.378
197.75	99.370
199.74	99.368
201.73	99.366
203.74	99.356
205.73	99.352
207.71	99.346
209.70	99.346
211.69	99.338
213.69	99.338
215.68	99.329
217.66	99.321
219.65	99.321
221.66	99.315
223.63	99.311
225.61	99.313
227.58	99.309
229.56	99.297
231.52	99.289
233.50	99.285
235.50	99.281
237.50	99.277
239.47	99.267
241.46	99.265
243.45	99.252
245.45	99.236
247.45	99.226
249.44	99.218
251.43	99.200
253.44	99.186
255.44	99.171
257.44	99.157
259.40	99.141
261.36	99.121
263.33	99.102
265.27	99.080
267.21	99.054
269.16	99.028
271.13	99.005
273.06	98.983
275.00	98.949
276.95	98.914
278.87	98.870
280.80	98.833
282.74	98.874
284.68	98.831
286.65	98.732
288.60	98.673
290.56	98.628
292.51	98.574
294.48	98.521
296.42	98.474
298.35	98.422
300.29	98.375
302.28	98.323
304.27	98.262
306.29	98.199
308.31	98.140
310.33	98.061
312.33	97.988
314.33	97.911
316.35	97.822
318.37	97.739
320.35	97.644
322.34	97.544
324.34	97.435
326.36	97.322
328.37	97.198
330.37	97.062
332.38	96.917
334.41	96.750
336.44	96.584
338.46	96.406
340.47	96.195
342.49	95.960
344.45	95.691
346.42	95.405
348.40	95.109
350.45	94.781
352.52	94.433
354.56	94.066
356.58	93.669
358.61	93.231
360.67	92.751
362.70	92.227
364.69	91.663
366.71	91.102
368.70	90.482
370.68	89.870
372.64	89.149
374.61	88.428
376.59	87.682
378.55	86.919
380.50	86.135
382.48	85.344
384.46	84.566
386.45	83.782
388.41	83.025
390.40	82.308
392.38	81.613
394.38	80.926
396.37	80.261
398.35	79.583
400.34	78.874
402.32	78.126
404.29	77.332
406.27	76.489
408.23	75.586
410.20	74.633
412.17	73.683
414.14	72.626
416.11	71.432
418.07	70.231
420.04	68.963
422.01	67.619
423.99	66.193
425.97	64.686
427.95	63.108
429.92	61.430
431.88	59.660
433.86	57.790
435.84	55.823
437.79	53.728
439.76	51.509
441.74	49.200
443.71	46.805
445.70	44.307
447.68	41.742
449.66	39.098
451.66	36.396
453.63	33.699
455.62	31.015
457.59	28.357
459.59	25.772
461.61	23.256
463.61	20.835
465.65	18.554
467.70	16.392
469.76	14.433
471.85	12.664
473.95	11.126
476.00	9.816
478.05	8.754
480.13	7.899
482.20	7.180
484.27	6.617
486.32	6.165
488.36	5.812
490.40	5.573
492.43	5.462
494.44	5.395
496.46	5.349
498.49	5.316
500.51	5.282
502.51	5.245
504.54	5.203
506.55	5.170
508.56	5.126
510.57	5.089
512.54	5.053
514.53	5.028
516.52	4.986
518.52	4.955
520.50	4.915
522.49	4.870
524.46	4.834
526.43	4.802
528.41	4.761
530.39	4.718
532.39	4.686
534.37	4.639
536.36	4.609
538.37	4.564
540.36	4.526
542.36	4.496
544.38	4.455
546.38	4.398
548.35	4.386
550.37	4.348
552.41	4.297
554.38	4.267
556.40	4.226
558.44	4.194
560.45	4.145
562.48	4.105
564.49	4.068
566.50	4.032
568.54	3.997
570.56	3.975
572.55	3.932
574.55	3.902
576.59	3.874
578.65	3.835
580.74	3.805
582.82	3.760
584.93	3.722
586.96	3.679
588.70	3.647