File: 论文/论文/dsc/10%5mm.txt
Filename:	D:\TGAdata\„∆√ŒœÈ\20150506\10%5mm.pdid

Temperature (°„C)	Heat Flow Endo Up (mW)
10.21	1.2729
10.60	0.9924
11.23	1.6685
11.87	2.4976
12.52	2.8700
13.17	3.0109
13.82	3.0687
14.47	3.0983
15.12	3.1198
15.77	3.1375
16.43	3.1545
17.07	3.1707
17.72	3.1913
18.37	3.2081
19.02	3.2221
19.67	3.2342
20.31	3.2499
20.96	3.2660
21.61	3.2823
22.26	3.2974
22.90	3.3137
23.55	3.3298
24.19	3.3453
24.84	3.3617
25.49	3.3785
26.14	3.3954
26.79	3.4138
27.44	3.4295
28.09	3.4439
28.74	3.4637
29.39	3.4812
30.04	3.4983
30.68	3.5156
31.34	3.5325
31.98	3.5491
32.63	3.5669
33.28	3.5841
33.93	3.6016
34.57	3.6207
35.22	3.6394
35.87	3.6586
36.52	3.6794
37.17	3.6991
37.82	3.7176
38.47	3.7354
39.12	3.7545
39.77	3.7742
40.42	3.7943
41.07	3.8144
41.71	3.8345
42.36	3.8539
43.01	3.8746
43.66	3.8945
44.31	3.9146
44.95	3.9335
45.60	3.9539
46.25	3.9751
46.90	3.9954
47.55	4.0156
48.20	4.0370
48.85	4.0570
49.50	4.0761
50.15	4.0975
50.80	4.1194
51.44	4.1391
52.09	4.1591
52.74	4.1800
53.39	4.1997
54.04	4.2194
54.69	4.2407
55.34	4.2598
55.99	4.2804
56.64	4.3023
57.29	4.3226
57.93	4.3435
58.59	4.3632
59.23	4.3855
59.88	4.4034
60.53	4.4243
61.19	4.4459
61.83	4.4652
62.48	4.4875
63.13	4.5094
63.78	4.5310
64.43	4.5524
65.08	4.5735
65.72	4.5958
66.38	4.6161
67.03	4.6363
67.67	4.6584
68.33	4.6810
68.98	4.7022
69.63	4.7251
70.28	4.7476
70.92	4.7712
71.57	4.7932
72.22	4.8157
72.88	4.8382
73.53	4.8613
74.17	4.8844
74.83	4.9070
75.48	4.9300
76.13	4.9533
76.78	4.9753
77.42	4.9961
78.08	5.0188
78.73	5.0421
79.37	5.0632
80.02	5.0865
80.67	5.1107
81.33	5.1382
81.97	5.1622
82.62	5.1830
83.27	5.2080
83.92	5.2341
84.57	5.2604
85.21	5.2874
85.85	5.3134
86.50	5.3400
87.15	5.3681
87.80	5.3959
88.45	5.4222
89.09	5.4500
89.75	5.4784
90.39	5.5086
91.04	5.5382
91.68	5.5685
92.34	5.5996
92.98	5.6286
93.63	5.6571
94.28	5.6866
94.92	5.7175
95.58	5.7479
96.23	5.7801
96.87	5.8082
97.52	5.8458
98.17	5.8798
98.82	5.9133
99.47	5.9441
100.12	5.9800
100.77	6.0137
101.42	6.0479
102.07	6.0821
102.72	6.1175
103.37	6.1548
104.01	6.1959
104.67	6.2375
105.32	6.2798
105.96	6.3274
106.61	6.3722
107.26	6.4116
107.90	6.4381
108.55	6.4423
109.20	6.4323
109.86	6.4316
110.50	6.4396
111.15	6.4750
111.80	6.5061
112.45	6.5406
113.10	6.5750
113.75	6.6089
114.40	6.6423
115.05	6.6756
115.70	6.7131
116.35	6.7466
117.00	6.7851
117.65	6.8222
118.30	6.8571
118.95	6.8927
119.60	6.9313
120.25	6.9716
120.90	7.0122
121.54	7.0494
122.19	7.0887
122.85	7.1283
123.48	7.1682
124.14	7.2075
124.79	7.2466
125.43	7.2869
126.09	7.3268
126.74	7.3657
127.38	7.4049
128.03	7.4461
128.69	7.4857
129.34	7.5226
129.99	7.5637
130.64	7.6076
131.28	7.6513
131.93	7.6925
132.59	7.7367
133.24	7.7809
133.89	7.8244
134.54	7.8709
135.18	7.9179
135.83	7.9585
136.48	8.0053
137.13	8.0510
137.78	8.0987
138.43	8.1462
139.08	8.1978
139.73	8.2500
140.38	8.3018
141.04	8.3568
141.69	8.4119
142.34	8.4662
142.99	8.5199
143.64	8.5772
144.29	8.6331
144.93	8.6904
145.58	8.7472
146.23	8.8020
146.88	8.8585
147.53	8.9163
148.18	8.9727
148.82	9.0295
149.47	9.0855
150.12	9.1514
150.77	9.2243
151.42	9.3008
152.06	9.3771
152.70	9.4626
153.36	9.5505
154.00	9.6372
154.65	9.7333
155.30	9.8321
155.95	9.9378
156.60	10.0576
157.25	10.1825
157.89	10.3173
158.55	10.4721
159.19	10.6471
159.84	10.8395
160.49	11.0354
161.14	11.2703
161.79	11.5013
162.44	11.7333
163.08	11.9595
163.73	12.1808
164.38	12.3503
165.03	12.4631
165.68	12.5276
166.33	12.5419
166.97	12.4768
167.62	12.3252
168.28	12.0532
168.93	11.6440
169.58	11.1303
170.22	10.6255
170.88	10.2730
171.52	10.1136
172.17	10.0690
172.82	10.0814
173.47	10.1227
174.12	10.1675
174.77	10.2167
175.42	10.2683
176.07	10.3201
176.72	10.3684
177.37	10.4200
178.01	10.4709
178.66	10.5193
179.31	10.5700
179.96	10.6142
180.61	10.6620
181.26	10.7025
181.91	10.7579
182.55	10.8089
183.20	10.8574
183.85	10.9065
184.50	10.9584
185.15	11.0095
185.80	11.0572
186.45	11.1080
187.10	11.1597
187.75	11.2101
188.40	11.2615
189.05	11.3108
189.70	11.3639
190.35	11.4169
191.00	11.4663
191.65	11.5199
192.30	11.5694
192.94	11.6216
193.60	11.6751
194.25	11.7262
194.90	11.7776
195.55	11.8318
196.19	11.8867
196.85	11.9381
197.50	11.9897
198.15	12.0446
198.80	12.0964
199.44	12.1493
199.91	12.1866