File: 论文/论文/dsc/30%10mm.txt
Filename:	D:\TGAdata\„∆√ŒœÈ\20150506\30%10mm.pdid

Temperature (°„C)	Heat Flow Endo Up (mW)
10.12	0.3039
10.51	0.8391
11.14	1.8423
11.79	2.7130
12.43	3.0812
13.09	3.2171
13.73	3.2722
14.39	3.3036
15.04	3.3272
15.69	3.3470
16.34	3.3672
16.99	3.3866
17.64	3.4088
18.29	3.4284
18.94	3.4452
19.59	3.4620
20.23	3.4791
20.88	3.4987
21.53	3.5182
22.18	3.5373
22.83	3.5561
23.48	3.5764
24.13	3.5952
24.78	3.6152
25.42	3.6332
26.07	3.6540
26.72	3.6746
27.36	3.6940
28.02	3.7157
28.67	3.7381
29.31	3.7576
29.97	3.7782
30.61	3.7995
31.26	3.8207
31.91	3.8405
32.57	3.8600
33.21	3.8817
33.85	3.9036
34.50	3.9246
35.15	3.9459
35.80	3.9680
36.45	3.9887
37.10	4.0109
37.75	4.0331
38.40	4.0537
39.04	4.0773
39.70	4.1005
40.34	4.1223
40.99	4.1457
41.65	4.1685
42.30	4.1923
42.94	4.2154
43.59	4.2392
44.24	4.2631
44.88	4.2861
45.53	4.3100
46.19	4.3347
46.84	4.3583
47.48	4.3822
48.14	4.4072
48.79	4.4308
49.43	4.4535
50.08	4.4781
50.73	4.5011
51.38	4.5257
52.03	4.5477
52.68	4.5703
53.33	4.5928
53.98	4.6157
54.63	4.6373
55.28	4.6597
55.93	4.6834
56.58	4.7128
57.23	4.7320
57.88	4.7521
58.53	4.7728
59.18	4.7953
59.82	4.8159
60.48	4.8369
61.13	4.8602
61.77	4.8848
62.42	4.9080
63.06	4.9337
63.72	4.9669
64.38	4.9902
65.02	5.0115
65.67	5.0312
66.32	5.0516
66.97	5.0753
67.63	5.1004
68.27	5.1260
68.92	5.1496
69.57	5.1739
70.22	5.3997
70.87	5.3518
71.52	5.2886
72.16	5.2881
72.82	5.3060
73.47	5.3287
74.12	5.3542
74.77	5.3787
75.42	5.4034
76.07	5.4296
76.72	5.4556
77.37	5.4818
78.02	5.5097
78.67	5.5336
79.33	5.5590
79.97	5.5840
80.62	5.6117
81.27	5.6387
81.92	5.6650
82.57	5.6870
83.21	5.7134
83.86	5.7409
84.51	5.7675
85.16	5.7967
85.80	5.8258
86.45	5.8531
87.10	5.8817
87.75	5.9105
88.39	5.9386
89.05	5.9669
89.69	5.9950
90.34	6.0245
90.98	6.0550
91.63	6.0845
92.28	6.1144
92.93	6.1421
93.58	6.1714
94.23	6.2014
94.88	6.2329
95.53	6.2637
96.17	6.2943
96.83	6.3231
97.48	6.3572
98.12	6.3921
98.77	6.4214
99.42	6.4534
100.07	6.4847
100.72	6.5204
101.37	6.5541
102.02	6.5874
102.67	6.6192
103.31	6.6524
103.97	6.6843
104.62	6.7189
105.26	6.7527
105.91	6.7882
106.56	6.8210
107.21	6.8556
107.86	6.8906
108.51	6.9291
109.16	6.9642
109.81	6.9997
110.46	7.0356
111.11	7.0722
111.76	7.1079
112.41	7.1449
113.06	7.1826
113.71	7.2213
114.35	7.2571
115.00	7.2939
115.65	7.3327
116.30	7.3691
116.95	7.4090
117.60	7.4487
118.25	7.4862
118.90	7.5242
119.55	7.5632
120.20	7.6033
120.85	7.6435
121.50	7.6823
122.15	7.7237
122.80	7.7638
123.45	7.8058
124.10	7.8477
124.75	7.8896
125.40	7.9322
126.04	7.9733
126.70	8.0154
127.34	8.0581
127.99	8.1027
128.64	8.1483
129.29	8.1913
129.94	8.2362
130.59	8.2805
131.24	8.3272
131.89	8.3719
132.54	8.4195
133.19	8.4677
133.84	8.5156
134.49	8.5640
135.15	8.6106
135.79	8.6571
136.44	8.7089
137.09	8.7581
137.75	8.8067
138.39	8.8568
139.05	8.9074
139.69	8.9585
140.34	9.0110
141.00	9.0641
141.65	9.1208
142.30	9.1808
142.94	9.2410
143.60	9.3046
144.24	9.3712
144.90	9.4413
145.54	9.5103
146.19	9.5760
146.84	9.6294
147.49	9.6683
148.13	9.7030
148.79	9.7424
149.43	9.7995
150.08	9.8750
150.72	9.9656
151.38	10.0621
152.02	10.1580
152.67	10.2561
153.32	10.3493
153.97	10.4422
154.61	10.5371
155.26	10.6386
155.91	10.7509
156.56	10.8779
157.21	11.0181
157.86	11.1763
158.50	11.3606
159.15	11.5686
159.80	11.7916
160.45	12.0444
161.10	12.3119
161.75	12.5801
162.40	12.8368
163.05	13.0161
163.69	13.2239
164.34	13.4087
164.99	13.5642
165.64	13.6946
166.29	13.8015
166.94	13.8472
167.58	13.8088
168.24	13.6376
168.89	13.2831
169.54	12.7170
170.18	12.0145
170.84	11.3909
171.49	11.0254
172.13	10.8911
172.78	10.8757
173.43	10.9029
174.08	10.9469
174.74	10.9952
175.38	11.0455
176.03	11.0964
176.68	11.1448
177.33	11.1936
177.97	11.2456
178.63	11.2959
179.28	11.3474
179.93	11.3976
180.58	11.4496
181.22	11.5007
181.87	11.5532
182.52	11.6047
183.17	11.6576
183.81	11.7085
184.47	11.7607
185.12	11.8133
185.77	11.8662
186.42	11.9197
187.07	11.9752
187.72	12.0263
188.36	12.0797
189.02	12.1338
189.66	12.1898
190.32	12.2440
190.97	12.2999
191.62	12.3533
192.26	12.4087
192.91	12.4643
193.56	12.5202
194.21	12.5739
194.86	12.6302
195.51	12.6860
196.16	12.7397
196.81	12.7964
197.46	12.8517
198.11	12.9093
198.76	12.9659
199.41	13.0211
199.88	13.0616