File: 论文/论文/dsc/chunPP.txt
Filename:	D:\TGAdata\„∆√ŒœÈ\20150506\chunPP.pdid

Temperature (°„C)	Heat Flow Endo Up (mW)
10.13	-6.4984
10.51	-3.7265
11.14	-1.3553
11.78	0.7835
12.43	2.0266
13.08	2.6674
13.73	2.9908
14.39	3.1552
15.03	3.2459
15.68	3.2972
16.34	3.3322
16.98	3.3577
17.63	3.3837
18.29	3.4071
18.94	3.4212
19.58	3.4366
20.23	3.4528
20.88	3.4673
21.52	3.4856
22.18	3.5012
22.82	3.5190
23.47	3.5362
24.11	3.5548
24.77	3.5704
25.42	3.5845
26.07	3.6042
26.71	3.6243
27.36	3.6403
28.01	3.6581
28.66	3.6791
29.31	3.6985
29.96	3.7164
30.61	3.7347
31.26	3.7528
31.91	3.7715
32.55	3.7890
33.20	3.8069
33.85	3.8260
34.50	3.8467
35.15	3.8631
35.80	3.8835
36.45	3.9031
37.09	3.9222
37.75	3.9425
38.40	3.9624
39.05	3.9801
39.70	4.0016
40.34	4.0225
40.99	4.0437
41.64	4.0642
42.29	4.0843
42.94	4.1073
43.59	4.1292
44.24	4.1512
44.89	4.1693
45.53	4.1913
46.18	4.2138
46.83	4.2358
47.48	4.2566
48.13	4.2823
48.78	4.3034
49.43	4.3238
50.08	4.3452
50.74	4.3692
51.38	4.3919
52.03	4.4145
52.68	4.4366
53.33	4.4586
53.98	4.4811
54.63	4.5037
55.27	4.5256
55.93	4.5470
56.58	4.5698
57.23	4.5931
57.88	4.6168
58.52	4.6362
59.18	4.6586
59.82	4.6823
60.48	4.7003
61.12	4.7214
61.77	4.7424
62.42	4.7646
63.07	4.7872
63.72	4.8096
64.37	4.8307
65.02	4.8537
65.67	4.8747
66.32	4.8962
66.97	4.9178
67.62	4.9397
68.27	4.9633
68.92	4.9848
69.57	5.0073
70.22	5.0313
70.87	5.0531
71.52	5.0747
72.16	5.0991
72.82	5.1192
73.47	5.1456
74.12	5.1708
74.77	5.1930
75.42	5.2182
76.07	5.2411
76.72	5.2676
77.37	5.2908
78.02	5.3167
78.67	5.3394
79.32	5.3648
79.97	5.3892
80.62	5.4187
81.27	5.4449
81.92	5.4734
82.57	5.4934
83.21	5.5179
83.86	5.5435
84.51	5.5684
85.16	5.5976
85.80	5.6254
86.45	5.6510
87.10	5.6794
87.75	5.7093
88.40	5.7328
89.05	5.7620
89.69	5.7906
90.34	5.8185
90.98	5.8488
91.63	5.8781
92.28	5.9076
92.93	5.9387
93.58	5.9674
94.23	5.9949
94.88	6.0260
95.53	6.0578
96.17	6.0886
96.82	6.1136
97.48	6.1514
98.13	6.1859
98.77	6.2157
99.42	6.2491
100.07	6.2802
100.72	6.3132
101.37	6.3450
102.02	6.3792
102.67	6.4118
103.32	6.4434
103.97	6.4775
104.62	6.5133
105.27	6.5468
105.92	6.5804
106.56	6.6183
107.21	6.6538
107.86	6.6857
108.50	6.7205
109.16	6.7565
109.81	6.7912
110.46	6.8253
111.11	6.8619
111.76	6.8988
112.41	6.9340
113.06	6.9703
113.70	7.0071
114.35	7.0431
115.01	7.0814
115.65	7.1206
116.31	7.1576
116.95	7.1963
117.60	7.2358
118.25	7.2747
118.90	7.3119
119.55	7.3515
120.20	7.3950
120.85	7.4356
121.50	7.4758
122.15	7.5172
122.80	7.5582
123.45	7.6014
124.10	7.6431
124.75	7.6849
125.40	7.7268
126.05	7.7706
126.70	7.8143
127.35	7.8572
128.00	7.9012
128.64	7.9474
129.30	7.9913
129.95	8.0364
130.60	8.0839
131.25	8.1308
131.90	8.1790
132.54	8.2262
133.19	8.2731
133.84	8.3233
134.50	8.3733
135.15	8.4251
135.79	8.4733
136.44	8.5233
137.09	8.5761
137.75	8.6290
138.40	8.6823
139.05	8.7368
139.69	8.7934
140.35	8.8485
141.00	8.9047
141.65	8.9635
142.30	9.0250
142.94	9.0883
143.60	9.1532
144.25	9.2222
144.90	9.3005
145.55	9.3790
146.19	9.4581
146.84	9.5387
147.49	9.6158
148.14	9.6837
148.78	9.7430
149.43	9.7852
150.08	9.8222
150.73	9.8660
151.38	9.9314
152.02	10.0160
152.67	10.1167
153.32	10.2253
153.96	10.3356
154.61	10.4470
155.25	10.5545
155.91	10.6611
156.56	10.7746
157.21	10.8967
157.86	11.0325
158.50	11.1859
159.15	11.3603
159.80	11.5574
160.45	11.7906
161.10	12.0563
161.75	12.3504
162.40	12.6677
163.05	12.9892
163.69	13.3209
164.34	13.6173
164.99	13.8890
165.64	14.1302
166.29	14.3417
166.94	14.5132
167.59	14.6584
168.24	14.7643
168.88	14.8066
169.54	14.7387
170.19	14.5021
170.83	14.0139
171.48	13.2165
172.14	12.2695
172.79	11.5266
173.44	11.1097
174.09	10.9241
174.73	10.8657
175.38	10.8659
176.03	10.8915
176.68	10.9325
177.33	10.9720
177.98	11.0205
178.63	11.0706
179.28	11.1200
179.93	11.1682
180.58	11.2204
181.22	11.2714
181.88	11.3212
182.52	11.3718
183.17	11.4238
183.82	11.4729
184.47	11.5231
185.12	11.5767
185.77	11.6265
186.42	11.6797
187.07	11.7330
187.72	11.7850
188.37	11.8352
189.02	11.8866
189.67	11.9384
190.32	11.9958
190.97	12.0510
191.62	12.1055
192.27	12.1588
192.92	12.2102
193.57	12.2634
194.22	12.3185
194.87	12.3729
195.51	12.4262
196.17	12.4815
196.81	12.5360
197.47	12.5901
198.11	12.6469
198.76	12.7011
199.42	12.7537
199.88	12.7936